9/3/2024
Time (s)	Frequency (Hz)	Z' (Ω)	-Z'' (Ω)	Z (Ω)	-Phase (°)	OCP value (V)
6.24724698422722	50000	94.6476306575039	1.91204068380508	94.6669418997772	1.15731330347442	-0.000344848632812505
9.13129097694571	14100	97.9519040809241	11.5048514589582	98.6252357166828	6.69893103145381	
10.6583109730904	3976.4	100.027433272646	39.3413802467118	107.485960045161	21.4700073796999	
15.1923819616429	2846.07	100.274706020143	54.596659355321	114.174479986497	28.5670059597249	
15.1923819616429	2213.61	102.224424465545	69.9610891913819	123.872462469092	34.3872396175416	
15.1923819616429	1581.15	107.265448179846	96.9549069706528	144.589523683119	42.1097429228476	
12.2553359690583	1121.4	117.4585475416	134.93128103413	178.893714233043	48.9602195411846	
15.1923819616429	948.69	124.193912427196	158.638277137027	201.470173616291	51.9435026015501	
16.7144029578002	802.602	134.246319914167	185.495540163443	228.97744393504	54.1060924281278	
16.7144029578002	624.246	156.232515972138	232.047106073738	279.739983706622	56.0484331488851	
16.7144029578002	445.89	205.719802097323	307.459060484533	369.934738635065	56.2136553314591	
15.1923819616429	316.23	290.84013525336	392.013095500339	488.121144100469	53.4277505434216	
16.7144029578002	267.534	348.448415607012	430.27743617801	553.674065152919	50.9986635633143	
18.5264319532253	226.341	415.143073323873	462.825275358698	621.73226298757	48.1086629051818	
18.5264319532253	176.043	531.526560189423	491.868446712626	724.192690558453	42.7808117686426	
18.5264319532253	125.745	696.652098866388	485.462007428466	849.11572091878	34.8707117741767	
16.7144029578002	89.178	843.186220428804	428.403406304206	945.776126181063	26.934069792787	
18.5264319532253	75.447	898.944915348457	390.575763155819	980.128250585399	23.4840990175326	
20.9384659471355	63.8289	943.024257875978	348.167321833528	1005.24386838979	20.2642939042277	
20.9384659471355	49.6447	995.231583460868	288.87760626701	1036.30891925168	16.1859888888254	
20.9384659471355	35.4605	1039.14713192206	216.246806266463	1061.40917793388	11.755490661901	
18.5264319532253	25.149	1064.00336245064	156.101569280886	1075.39334907661	8.34640834237427	
20.9384659471355	21.2763	1069.29823339332	133.568877041096	1077.60816480393	7.12008856263517	
23.6005089404144	18	1075.65079832141	114.211943469489	1081.69728110991	6.06092180939423	
23.6005089404144	14	1080.57376561877	88.3524511930481	1084.17979070602	4.67435610625285	
23.6005089404144	10	1085.24732065702	64.672480248239	1087.17260667048	3.41035916795137	
20.9384659471355	7.0921	1087.49129379362	46.3899880715636	1088.48029153963	2.44263111591329	
23.6005089404144	6	1086.94132371553	38.8527387897358	1087.63549800103	2.04716715881393	
23.6005089404144	2	1088.86878522438	13.277326707912	1088.94973200811	0.698612260465627	
