9/2/2024
Time (s)	Frequency (Hz)	Z' (Ω)	-Z'' (Ω)	Z (Ω)	-Phase (°)	OCP value (V)
8.43123897871317	50000	21.5155596363841	4.11172026079631	21.9049206793781	10.819032945224	-0.0307014016544118
12.5153009684019	14100	26.251327431226	13.9968643160999	29.7496958402057	28.0659552398847	
14.7823349626782	3976.4	31.4338054211935	40.8487453287807	51.543225725531	52.4211048787845	
21.2764339462822	2846.07	34.2271911274864	55.9946722503255	65.6270061247567	58.5643072795358	
21.2764339462822	2213.61	38.1369485819586	69.76254926787	79.5062269730802	61.3359870452756	
21.2764339462822	1581.15	45.9045503996031	94.946916068236	105.461578872395	64.1973499848315	
17.029367957005	1121.4	60.2441629558602	128.195095484512	141.64512584814	64.829232792841	
21.2764339462822	948.69	71.1606835791193	146.986130192033	163.305741957461	64.1668923501062	
23.5334679405837	802.602	83.451730690126	168.611745467392	188.133229560165	63.66761508271	
23.5334679405837	624.246	110.935823921854	202.100836637622	230.54610211159	61.2370340137132	
23.5334679405837	445.89	161.134302974473	251.854165385671	298.989605533674	57.3892085896311	
21.2764339462822	316.23	235.511748158612	298.349234468165	380.102682479966	51.7130455492154	
23.5334679405837	267.534	278.354539062416	315.570163485675	420.79184580862	48.5854950120521	
26.0605049342035	226.341	323.731269151166	326.851233181601	460.036589043261	45.2747682271821	
26.0605049342035	176.043	398.865341766836	335.557518431245	521.241219627257	40.0732379248137	
26.0605049342035	125.745	496.602812990744	326.547683364754	594.346484284384	33.3274436974988	
23.5334679405837	89.178	588.013185809218	296.039951760733	658.330585438656	26.7233356000862	
26.0605049342035	75.447	621.714845224482	282.453661597573	682.868523013308	24.4329558568683	
29.2375539261823	63.8289	634.803292523279	252.601867970371	683.21513734732	21.6986719820556	
29.2375539261823	49.6447	691.154077776964	235.391101042004	730.138979700093	18.8076559470331	
29.2375539261823	35.4605	727.34573657005	203.308929859627	755.226020120663	15.616832007838	
26.0605049342035	25.149	763.161772614838	175.555296226682	783.093578835799	12.95476734456	
29.2375539261823	21.2763	774.190867465685	166.795618623865	791.954719450164	12.1582528056312	
32.7346049173531	18	785.36554412683	161.028658278989	801.703976969532	11.5871370771249	
32.7346049173531	14	804.318428218629	151.251270989042	818.416202764758	10.6500389865961	
32.7346049173531	10	834.420684592419	142.392071336763	846.482947764014	9.68411627745749	
29.2375539261823	7.0921	865.373460926934	132.776424375854	875.500317388119	8.7230088967178	
32.7346049173531	6	878.051338637652	134.079160182302	888.229347904337	8.68204579653479	
32.7346049173531	2	969.437112226716	83.9282600111223	973.063341921259	4.94800001379534	
