9/2/2024
Time (s)	Frequency (Hz)	Z' (Ω)	-Z'' (Ω)	Z (Ω)	-Phase (°)	OCP value (V)
6.89426298259366	50000	20.8861212790584	4.30648918075317	21.325475637075	11.6504900076953	-0.0446685791015625
9.73730597541567	14100	25.7613426582296	13.5261027300773	29.0964298603682	27.7019099295187	
11.2863269715048	3976.4	30.6207332812487	39.7623580743261	50.1863968253579	52.4003660545111	
15.8463969599917	2846.07	33.3320293009631	54.0299532854362	63.4843290060364	58.328833599352	
15.8463969599917	2213.61	36.5952417954768	68.0581987225857	77.2730880412604	61.7328530366512	
15.8463969599917	1581.15	45.4637692321584	93.0290020464586	103.543949772814	63.9549935939988	
12.8703519675055	1121.4	60.8108289601212	124.366567638816	138.437711860163	63.9430111277005	
15.8463969599917	948.69	71.6408607878663	142.373141048114	159.381693510681	63.2888781303166	
17.4054199560555	802.602	85.1599153214841	161.884147464811	182.917162611853	62.2531753740764	
17.4054199560555	624.246	112.698427135952	191.930700513906	222.572076592452	59.579272318721	
17.4054199560555	445.89	162.312239085762	236.163874250007	286.563498125297	55.4997849329281	
15.8463969599917	316.23	232.079853265221	275.514013605303	360.234687369928	49.8908132008402	
17.4054199560555	267.534	272.538775404256	287.775237208566	396.348295378317	46.5576442090923	
19.2094459515008	226.341	313.931350672512	295.150482125665	430.890589400698	43.2338602035625	
19.2094459515008	176.043	379.344266559221	299.757334236239	483.483745331494	38.3157436034172	
19.2094459515008	125.745	464.606839639652	288.71884640062	547.008306798763	31.8578994075966	
17.4054199560555	89.178	540.7114005554	265.221454505296	602.255127516974	26.1281653235788	
19.2094459515008	75.447	567.395927820638	247.792071834305	619.143803789863	23.5917646989026	
21.6184829454186	63.8289	589.851683769517	231.743046346965	633.742730432394	21.4490489632773	
21.6184829454186	49.6447	620.985167709589	210.472670142267	655.683859334758	18.7232408501785	
21.6184829454186	35.4605	661.025327195324	184.942222514428	686.409578067105	15.6306018424918	
19.2094459515008	25.149	696.071186564564	164.438873897463	715.230899789757	13.2917844675429	
21.6184829454186	21.2763	705.509897312777	158.361362405842	723.064683350888	12.6511330785764	
24.2775229387051	18	717.107852381274	156.111110814696	733.903502421593	12.2814121124343	
24.2775229387051	14	736.954362330712	149.80877878261	752.026862790554	11.4905720054045	
24.2775229387051	10	765.785731090325	143.743192431792	779.159734144435	10.6311014465683	
21.6184829454186	7.0921	795.893998255047	136.685005621824	807.545693580396	9.74478384274347	
24.2775229387051	6	818.036532699296	136.008389362903	829.265971089962	9.43976163355203	
24.2775229387051	2	906.328957126651	93.2761398999948	911.116137932441	5.87598955386308	
