9/2/2024
Time (s)	Frequency (Hz)	Z' (Ω)	-Z'' (Ω)	Z (Ω)	-Phase (°)	OCP value (V)
8.45723897864752	50000	21.7729009366121	3.93094352883516	22.1249075076579	10.234102716564	-0.0408342863384046
12.6563019680459	14100	26.2752825173537	13.4855442246483	29.5338851897562	27.1687401046903	
14.8033309626252	3976.4	30.9488480648725	40.2671847244296	50.7865864394713	52.4545764995094	
21.202430946469	2846.07	34.4753871658956	55.7522904800589	65.5505165045346	58.2687132768019	
21.202430946469	2213.61	36.8413172915805	69.3152471824148	78.4976824609375	62.0091858424807	
21.202430946469	1581.15	46.5218759274072	94.1775307875436	105.041383487861	63.7115202219372	
17.0803659568762	1121.4	61.8393372396306	126.856941345893	141.126847898874	64.0120150947073	
21.202430946469	948.69	73.7377376268711	144.554616293602	162.27535562161	62.9737370999874	
23.1394589415785	802.602	89.0305846897717	162.785687689442	185.54143776183	61.3249131462331	
23.1394589415785	624.246	116.30948017391	194.411818949157	226.54767826099	59.1094602303022	
23.1394589415785	445.89	167.424340218171	235.06145968115	288.5910593295	54.5393361617443	
21.202430946469	316.23	238.694511620352	273.992673585278	363.382794111234	48.938559845415	
23.1394589415785	267.534	278.102020063409	282.777151096963	396.615242704896	45.4775700138641	
25.6864959351478	226.341	316.408501711154	285.722293151973	426.323314820008	42.0825765755955	
25.6864959351478	176.043	379.988604271857	287.897292722664	476.734926907514	37.1492864479273	
25.6864959351478	125.745	459.626214426495	273.501490241769	534.845138477016	30.7548451612314	
23.1394589415785	89.178	536.501376639171	255.074698695059	594.051200697466	25.4283259904244	
25.6864959351478	75.447	559.170658633412	239.342131670063	608.24047996569	23.1724047460361	
28.8335429272023	63.8289	563.937634434465	208.766181386928	601.339316877269	20.3142368555658	
28.8335429272023	49.6447	608.856192450487	206.904098993793	643.051451491821	18.7690064483951	
28.8335429272023	35.4605	637.506609491857	181.785888894787	662.918386037883	15.9155734233328	
25.6864959351478	25.149	676.259925909447	161.622665684829	695.305237614474	13.4412686818878	
28.8335429272023	21.2763	682.694712843331	160.753968816298	701.365745837669	13.2500558686969	
32.3305959183731	18	691.523057679756	157.85164088386	709.310425577184	12.858404107825	
32.3305959183731	14	718.124672376493	156.874092554029	735.059539078635	12.3226640260965	
32.3305959183731	10	746.881046648841	147.314338610984	761.27052498022	11.1577625269937	
28.8335429272023	7.0921	791.242572477341	138.348148362996	803.246549109319	9.91786306575301	
32.3305959183731	6	806.032157958273	141.134436066965	818.295037689225	9.93168095061997	
32.3305959183731	2	900.260174555061	71.6832450203999	903.109555650123	4.55257315264687	
