9/1/2024
Time (s)	Frequency (Hz)	Z' (Ω)	-Z'' (Ω)	Z (Ω)	-Phase (°)	OCP value (V)
7.21922498177321	50000	21.3783800842356	4.21025176309683	21.7890191365904	11.1412353465595	-0.0268829345703125
11.3382899713736	14100	26.2514625547698	13.2308074730816	29.3971691265372	26.7482265968445	
13.5903199656877	3976.4	31.1744634709034	38.3088977757514	49.390472983073	50.8624891585314	
20.0294219494306	2846.07	33.5142689241488	52.2788469681568	62.0989859968754	57.3373880851932	
20.0294219494306	2213.61	36.7590436374225	65.5302219812495	75.1361250135363	60.7098433161144	
20.0294219494306	1581.15	45.5798682818785	88.4990351382427	99.5469919836522	62.7500664740731	
15.9273559597873	1121.4	59.3669764687545	118.5081494476	132.546668688943	63.3912972894404	
20.0294219494306	948.69	69.3903546271608	137.137108033338	153.693225989406	63.1609296099728	
22.1864519439846	802.602	80.7367369957589	155.523524329102	175.231239567798	62.5648750444561	
22.1864519439846	624.246	106.25566278156	186.119366457571	214.314452251163	60.2779270243512	
22.1864519439846	445.89	152.314333237077	230.506383518899	276.284000536435	56.5440133905999	
20.0294219494306	316.23	220.259738196272	272.428765482663	350.330964279062	51.0443232314808	
22.1864519439846	267.534	258.84965630631	287.592355937714	386.927005730667	48.0109674522608	
24.7034899376297	226.341	302.030064786189	298.780392222715	424.843362677951	44.6901007550025	
24.7034899376297	176.043	368.545635154923	307.16098684911	479.764272360776	39.8092064050904	
24.7034899376297	125.745	457.947336532718	298.685205944395	546.743646773748	33.1134397891926	
22.1864519439846	89.178	536.839365391089	272.742910986253	602.150479304602	26.9329884149798	
24.7034899376297	75.447	568.992208874989	256.869350792932	624.286790775859	24.2966137682844	
27.7855349298483	63.8289	596.170679584206	240.772488122466	642.954796414629	21.992059675777	
27.7855349298483	49.6447	630.779043279065	215.234442239082	666.489359679524	18.8406689285775	
27.7855349298483	35.4605	669.907527199898	186.441850498941	695.368002295584	15.5524078050856	
24.7034899376297	25.149	701.420894445958	162.741584216225	720.052841393306	13.0624763324333	
27.7855349298483	21.2763	712.220451643978	155.669076209037	729.034178230162	12.3291718572374	
31.2525889210948	18	725.60332902727	148.183082668512	740.579784415291	11.5422594328065	
31.2525889210948	14	742.633828091876	141.030745840318	755.906524577392	10.7527782376841	
31.2525889210948	10	769.240995649368	135.18930723589	781.029998257782	9.96758847117765	
27.7855349298483	7.0921	798.219776833538	130.627670902885	808.837684911933	9.29399993050786	
31.2525889210948	6	812.66827675405	127.883981702388	822.668852466443	8.94290335742383	
31.2525889210948	2	899.40332603669	85.2068089394144	903.4304307336	5.41188039406624	
