9/4/2024
Time (s)	Frequency (Hz)	Z' (Ω)	-Z'' (Ω)	Z (Ω)	-Phase (°)	OCP value (V)
7.33423098148285	50000	22.631082869846	2.8513715783169	22.8100028877567	7.18106267088557	-0.0175956726074219
11.2632899715629	14100	27.3282942062257	12.9459988691189	30.2396188954368	25.3479180769399	
13.5203209658645	3976.4	32.4020004119142	38.9699145823671	50.6808037944415	50.2577666072266	
19.7994189500113	2846.07	35.2503799906787	53.7439922511135	64.2729024751099	56.7393581965184	
19.7994189500113	2213.61	39.5277112437856	67.1393547507097	77.9110577037287	59.5129206423822	
19.7994189500113	1581.15	49.1271461868351	90.6851588612338	103.137163671248	61.5541315154408	
15.7723539601786	1121.4	65.4391610818582	120.785292151109	137.373107277684	61.5520124303753	
19.7994189500113	948.69	76.6771488479895	137.655145824733	157.570061647145	60.8811662174198	
21.8614479448051	802.602	91.8435689095629	156.40615603399	181.378407742968	59.5780336624596	
21.8614479448051	624.246	121.137799910503	184.505963696535	220.718864637222	56.7130103055028	
21.8614479448051	445.89	174.44347071424	218.545444886523	279.629461887474	51.4030530711045	
19.7994189500113	316.23	245.29045323888	241.629394652108	344.314058397387	44.5692119477157	
21.8614479448051	267.534	282.307718315217	246.603803000223	374.848080526654	41.1381351174102	
24.3534859385134	226.341	320.859014150492	246.069484952004	404.352195970506	37.4849029401815	
24.3534859385134	176.043	374.367524349603	236.218223757167	442.662504084818	32.2510844723444	
24.3534859385134	125.745	438.927844678517	210.039078062125	486.594355852301	25.5724004424716	
21.8614479448051	89.178	484.714573962101	175.731538825532	515.586842296475	19.9279319432519	
24.3534859385134	75.447	504.748003522147	160.866626129759	529.762794524082	17.6774345869109	
27.4155299307824	63.8289	515.016844970504	142.249932181027	534.300845787164	15.4403881641531	
27.4155299307824	49.6447	538.600359348833	124.38348529178	552.776264418093	13.0038170408667	
27.4155299307824	35.4605	555.149025818354	103.007639167411	564.624667008014	10.5116587943408	
24.3534859385134	25.149	568.031595818517	82.6001593880057	574.005818941808	8.27365864873959	
27.4155299307824	21.2763	572.680271864869	78.0469332195941	577.974063058373	7.76066434456207	
30.8675839220668	18	578.10675112293	73.559988375657	582.767953463243	7.25151373439173	
30.8675839220668	14	585.419610419877	67.7437230566719	589.326167989968	6.60080769175727	
30.8675839220668	10	595.558702013435	61.7249088918126	598.748805361338	5.91712426928558	
27.4155299307824	7.0921	605.531655519305	57.3105987081623	608.237692485626	5.40665892455003	
30.8675839220668	6	612.819167589958	54.9409386979726	615.277042405015	5.12302924756726	
30.8675839220668	2	647.473426038313	38.2239070744205	648.600728104606	3.37856273923438	
