9/3/2024
Time (s)	Frequency (Hz)	Z' (Ω)	-Z'' (Ω)	Z (Ω)	-Phase (°)	OCP value (V)
7.37422898138186	50000	21.8259652765063	4.05960908265016	22.2002969834909	10.5365560319668	-0.00345287322998046
11.3182899714241	14100	26.8574292726745	14.148156224334	30.3560839319711	27.7796978103224	
13.5553229657761	3976.4	33.4976451284902	39.9539743337957	52.138395585402	50.0233352339558	
19.849418949885	2846.07	36.0602127081397	53.8819295816945	64.83518547828	56.2077806286796	
19.849418949885	2213.61	40.4480364894995	67.1134952090242	78.3598423621922	58.9234234702224	
19.849418949885	1581.15	49.2571268855213	89.7650743525199	102.391567633911	61.2449367147645	
15.817355960065	1121.4	64.8298105740726	118.596265692999	135.159086174014	61.3370898411149	
19.849418949885	948.69	75.0503754669204	134.203313358004	153.763091065419	60.7848167213911	
22.0414499443507	802.602	88.4301733388594	152.316240324035	176.12533214501	59.8618538097686	
22.0414499443507	624.246	112.483852300822	181.257302139484	213.323291291216	58.1772726541628	
22.0414499443507	445.89	158.87947940006	220.391926980314	271.689695153369	54.2123478187907	
19.849418949885	316.23	221.923267106711	257.158099626928	339.676647250072	49.2063397146427	
22.0414499443507	267.534	257.198381820482	270.825209851705	373.493375981817	46.4783174156656	
24.5284899380715	226.341	296.207712209373	279.698904506739	407.394754451478	43.3580219082072	
24.5284899380715	176.043	355.073942861332	288.831964275812	457.713238268805	39.1263453468344	
24.5284899380715	125.745	434.948385233947	283.249982906271	519.047830776723	33.073247438185	
22.0414499443507	89.178	512.005968027845	271.147087254069	579.371085076307	27.9047091781725	
24.5284899380715	75.447	542.727233193981	255.519477833268	599.86919674424	25.2113584150799	
27.5705349303911	63.8289	581.120195458837	251.3027882596	633.130139037122	23.3858497237424	
27.5705349303911	49.6447	610.57549395836	232.343730094165	653.288636619806	20.8334392582946	
27.5705349303911	35.4605	649.461768421846	211.127166825796	682.916736662324	18.0083180574649	
24.5284899380715	25.149	694.524358234088	197.284594333493	722.000897050552	15.8575752669618	
27.5705349303911	21.2763	708.960227781074	192.730786884098	734.690248191955	15.2083202441183	
30.9875849217639	18	724.326889178419	187.721443283437	748.25716345071	14.5294882210317	
30.9875849217639	14	753.457374842175	182.606991703998	775.269842779432	13.6234509540224	
30.9875849217639	10	791.526422934644	174.285695038065	810.487249559556	12.4177666698717	
27.5705349303911	7.0921	833.982051284267	164.362089628862	850.024092818245	11.1490335731329	
30.9875849217639	6	850.654399668045	158.177314767432	865.235789008775	10.5337171254459	
30.9875849217639	2	949.646036185626	96.3481565706751	954.521116224067	5.79322971861176	
